Frank-Hertz Experiment		
		
Vr(V)= 1.0		
Cathode Heater Current (mA) = 260		
		 
Va(V)_1	Ia(E-12 A)_1	T(c)_1
0.00	0.62	110.63
0.05	1.25	110.63
0.10	0.08	110.63
0.15	0.27	110.63
0.20	0.56	110.64
0.25	0.23	110.64
0.30	0.03	110.64
0.35	0.01	110.64
0.40	0.04	110.65
0.45	0.37	110.65
0.50	0.03	110.66
0.55	0.01	110.66
0.60	0.04	110.66
0.65	0.04	110.66
0.70	0.15	110.67
0.75	0.02	110.67
0.80	0.03	110.68
0.85	0.01	110.68
0.90	0.07	110.68
0.95	0.05	110.68
1.00	0.02	110.69
1.05	0.17	110.69
1.10	0.44	110.69
1.15	0.02	110.69
1.20	0.01	110.69
1.25	0.04	110.70
1.30	0.03	110.70
1.35	0.01	110.71
1.40	0.04	110.71
1.45	0.09	110.71
1.50	0.30	110.71
1.55	0.07	110.71
1.60	0.07	110.71
1.65	0.17	110.73
1.70	0.04	110.73
1.75	0.07	110.73
1.80	0.05	110.73
1.85	0.05	110.73
1.90	0.07	110.73
1.95	0.44	110.75
2.00	0.34	110.75
2.05	0.12	110.75
2.10	0.15	110.75
2.15	0.13	110.76
2.20	0.03	110.76
2.25	0.16	110.76
2.30	0.02	110.76
2.35	0.14	110.77
2.40	0.18	110.77
2.45	0.09	110.77
2.50	0.12	110.77
2.55	0.07	110.78
2.60	0.16	110.78
2.65	0.12	110.78
2.70	0.07	110.78
2.75	0.01	110.79
2.80	0.07	110.79
2.85	0.00	110.79
2.90	0.05	110.79
2.95	0.07	110.80
3.00	0.04	110.80
3.05	0.09	110.81
3.10	0.02	110.81
3.15	0.01	110.80
3.20	0.04	110.80
3.25	0.04	110.81
3.30	0.25	110.81
3.35	0.02	110.81
3.40	0.15	110.81
3.45	0.08	110.81
3.50	0.07	110.82
3.55	0.07	110.82
3.60	0.03	110.82
3.65	0.11	110.82
3.70	0.01	110.83
3.75	0.00	110.83
3.80	0.16	110.83
3.85	0.05	110.83
3.90	0.02	110.84
3.95	0.08	110.84
4.00	0.02	110.84
4.05	0.07	110.84
4.10	0.03	110.85
4.15	0.01	110.85
4.20	0.06	110.85
4.25	0.09	110.85
4.30	0.03	110.86
4.35	0.12	110.86
4.40	0.12	110.87
4.45	0.03	110.87
4.50	0.02	110.87
4.55	0.00	110.87
4.60	0.10	110.88
4.65	0.08	110.88
4.70	0.20	110.88
4.75	0.10	110.88
4.80	0.00	110.89
4.85	0.05	110.89
4.90	0.13	110.89
4.95	0.00	110.89
5.00	0.03	110.90
5.05	0.02	110.90
5.10	0.17	110.90
5.15	0.07	110.90
5.20	0.20	110.91
5.25	0.09	110.91
5.30	0.07	110.92
5.35	0.01	110.92
5.40	0.16	110.92
5.45	0.03	110.92
5.50	0.08	110.92
5.55	0.20	110.92
5.60	0.05	110.93
5.65	0.00	110.93
5.70	0.01	110.94
5.75	0.03	110.94
5.80	0.01	110.95
5.85	0.01	110.95
5.90	0.01	110.95
5.95	0.08	110.95
6.00	0.08	110.95
6.05	0.01	110.96
6.10	0.06	110.96
6.15	0.11	110.96
6.20	0.03	110.96
6.25	0.05	110.97
6.30	0.15	110.97
6.35	0.03	110.98
6.40	0.01	110.98
6.45	0.12	110.98
6.50	0.02	110.98
6.55	0.02	111.00
6.60	0.04	111.00
6.65	0.06	111.01
6.70	0.07	111.01
6.75	0.03	111.01
6.80	0.19	111.01
6.85	0.02	111.02
6.90	0.21	111.02
6.95	0.23	111.03
7.00	0.22	111.03
7.05	0.23	111.03
7.10	0.13	111.03
7.15	0.28	111.03
7.20	0.37	111.03
7.25	0.42	111.04
7.30	0.28	111.04
7.35	0.42	111.04
7.40	0.38	111.04
7.45	0.43	111.05
7.50	0.42	111.05
7.55	0.54	111.05
7.60	0.48	111.05
7.65	0.61	111.06
7.70	0.59	111.06
7.75	0.68	111.06
7.80	0.72	111.06
7.85	0.48	111.07
7.90	0.49	111.07
7.95	0.63	111.08
8.00	0.51	111.08
8.05	0.66	111.08
8.10	0.42	111.08
8.15	0.50	111.08
8.20	0.62	111.09
8.25	0.53	111.09
8.30	0.49	111.09
8.35	0.76	111.09
8.40	0.56	111.10
8.45	0.54	111.10
8.50	0.47	111.10
8.55	0.64	111.10
8.60	0.79	111.10
8.65	0.56	111.10
8.70	0.82	111.12
8.75	0.96	111.12
8.80	0.82	111.12
8.85	0.75	111.12
8.90	0.80	111.12
8.95	0.78	111.12
9.00	0.85	111.12
9.05	0.88	111.12
9.10	0.89	111.12
9.15	1.28	111.12
9.20	1.11	111.12
9.25	1.02	111.12
9.30	0.94	111.13
9.35	1.10	111.13
9.40	1.05	111.14
9.45	1.11	111.14
9.50	1.26	111.14
9.55	1.29	111.14
9.60	1.53	111.14
9.65	1.34	111.14
9.70	1.52	111.14
9.75	1.61	111.14
9.80	1.59	111.15
9.85	1.54	111.15
9.90	1.75	111.16
9.95	1.53	111.16
10.00	1.59	111.16
10.05	1.66	111.16
10.10	1.85	111.17
10.15	1.87	111.17
10.20	2.02	111.17
10.25	2.08	111.17
10.30	2.08	111.17
10.35	2.27	111.18
10.40	2.68	111.18
10.45	2.61	111.18
10.50	2.89	111.18
10.55	2.99	111.19
10.60	3.36	111.19
10.65	3.39	111.18
10.70	3.59	111.18
10.75	3.92	111.20
10.80	4.33	111.20
10.85	4.64	111.20
10.90	5.04	111.20
10.95	6.00	111.21
11.00	7.08	111.21
11.05	8.03	111.20
11.10	9.50	111.20
11.15	11.60	111.21
11.20	14.33	111.21
11.25	17.14	111.21
11.30	19.53	111.21
11.35	22.37	111.22
11.40	25.98	111.22
11.45	28.67	111.21
11.50	30.68	111.21
11.55	33.83	111.22
11.60	36.93	111.22
11.65	40.45	111.22
11.70	44.69	111.22
11.75	48.06	111.22
11.80	52.89	111.22
11.85	58.10	111.22
11.90	63.82	111.22
11.95	68.12	111.23
12.00	74.12	111.23
12.05	82.44	111.23
12.10	90.46	111.23
12.15	97.98	111.23
12.20	109.56	111.23
12.25	123.04	111.24
12.30	139.96	111.24
12.35	155.54	111.24
12.40	169.06	111.24
12.45	186.75	111.25
12.50	205.12	111.25
12.55	220.98	111.26
12.60	232.26	111.26
12.65	244.97	111.26
12.70	258.51	111.26
12.75	269.33	111.26
12.80	281.06	111.26
12.85	289.87	111.26
12.90	301.37	111.26
12.95	314.78	111.26
13.00	331.37	111.27
13.05	348.49	111.27
13.10	362.62	111.27
13.15	380.89	111.27
13.20	402.73	111.28
13.25	420.81	111.28
13.30	434.60	111.27
13.35	453.51	111.27
13.40	469.68	111.28
13.45	489.26	111.28
13.50	505.96	111.29
13.55	519.58	111.29
13.60	538.26	111.28
13.65	558.15	111.28
13.70	576.63	111.29
13.75	590.80	111.29
13.80	607.51	111.30
13.85	627.80	111.30
13.90	646.04	111.30
13.95	663.61	111.30
14.00	677.15	111.30
