Frank-Hertz Experiment		
		
Vr(V)= 1.0		
Cathode Heater Current (mA) = 240		
		 
Va(V)_1	Ia(E-12 A)_1	T(c)_1
0.00	0.04	109.75
0.05	0.15	109.75
0.10	0.01	109.74
0.15	0.05	109.74
0.20	0.15	109.74
0.25	0.09	109.74
0.30	0.12	109.72
0.35	0.04	109.72
0.40	0.06	109.72
0.45	0.54	109.72
0.50	0.06	109.71
0.55	0.01	109.71
0.60	0.08	109.71
0.65	0.06	109.71
0.70	0.07	109.70
0.75	0.01	109.70
0.80	0.04	109.69
0.85	0.03	109.69
0.90	0.08	109.69
0.95	0.01	109.69
1.00	0.16	109.69
1.05	0.07	109.69
1.10	0.04	109.68
1.15	0.06	109.68
1.20	0.02	109.68
1.25	0.00	109.68
1.30	0.04	109.67
1.35	0.02	109.67
1.40	0.16	109.68
1.45	0.01	109.68
1.50	0.07	109.67
1.55	0.01	109.67
1.60	0.08	109.66
1.65	0.10	109.66
1.70	0.01	109.66
1.75	0.10	109.66
1.80	0.13	109.66
1.85	0.10	109.66
1.90	0.03	109.66
1.95	0.01	109.65
2.00	0.06	109.65
2.05	0.07	109.65
2.10	0.06	109.65
2.15	0.07	109.65
2.20	0.05	109.65
2.25	0.22	109.65
2.30	0.09	109.65
2.35	0.07	109.64
2.40	0.13	109.64
2.45	0.09	109.64
2.50	0.07	109.64
2.55	0.04	109.63
2.60	0.14	109.63
2.65	0.05	109.63
2.70	0.10	109.63
2.75	0.02	109.63
2.80	0.08	109.63
2.85	0.07	109.62
2.90	0.15	109.62
2.95	0.01	109.62
3.00	0.09	109.62
3.05	0.07	109.61
3.10	0.03	109.61
3.15	0.12	109.61
3.20	0.03	109.61
3.25	0.01	109.61
3.30	0.07	109.61
3.35	0.06	109.61
3.40	0.15	109.61
3.45	0.06	109.61
3.50	0.04	109.61
3.55	0.04	109.61
3.60	0.07	109.61
3.65	0.03	109.60
3.70	0.23	109.60
3.75	0.08	109.59
3.80	0.26	109.59
3.85	0.09	109.60
3.90	0.03	109.60
3.95	0.03	109.58
4.00	0.00	109.58
4.05	0.16	109.59
4.10	0.08	109.59
4.15	0.06	109.59
4.20	0.05	109.59
4.25	0.10	109.59
4.30	0.13	109.59
4.35	0.13	109.59
4.40	0.13	109.58
4.45	0.24	109.58
4.50	0.12	109.57
4.55	0.14	109.57
4.60	0.03	109.57
4.65	0.12	109.57
4.70	0.18	109.56
4.75	0.06	109.56
4.80	0.01	109.57
4.85	0.02	109.57
4.90	0.06	109.56
4.95	0.11	109.56
5.00	0.16	109.56
5.05	0.05	109.56
5.10	0.04	109.56
5.15	0.14	109.56
5.20	0.08	109.56
5.25	0.07	109.56
5.30	0.02	109.55
5.35	0.12	109.55
5.40	0.02	109.55
5.45	0.05	109.55
5.50	0.14	109.55
5.55	0.03	109.55
5.60	0.01	109.54
5.65	0.07	109.54
5.70	0.11	109.54
5.75	0.02	109.54
5.80	0.07	109.54
5.85	0.06	109.54
5.90	0.16	109.53
5.95	0.12	109.53
6.00	0.05	109.53
6.05	0.01	109.53
6.10	0.08	109.52
6.15	0.10	109.52
6.20	0.07	109.52
6.25	0.11	109.52
6.30	0.01	109.51
6.35	0.04	109.51
6.40	0.15	109.51
6.45	0.01	109.51
6.50	0.05	109.51
6.55	0.03	109.51
6.60	0.08	109.51
6.65	0.01	109.50
6.70	0.07	109.50
6.75	0.11	109.49
6.80	0.07	109.49
6.85	0.05	109.49
6.90	0.05	109.49
6.95	0.13	109.48
7.00	0.00	109.48
7.05	0.12	109.47
7.10	0.13	109.47
7.15	0.00	109.47
7.20	0.29	109.47
7.25	0.07	109.47
7.30	0.01	109.47
7.35	0.07	109.46
7.40	0.23	109.46
7.45	0.20	109.45
7.50	0.17	109.45
7.55	0.15	109.45
7.60	0.27	109.45
7.65	0.11	109.44
7.70	0.10	109.44
7.75	0.22	109.44
7.80	0.39	109.44
7.85	0.24	109.43
7.90	0.09	109.43
7.95	0.30	109.43
8.00	0.17	109.43
8.05	0.25	109.43
8.10	0.23	109.43
8.15	0.17	109.42
8.20	0.24	109.42
8.25	0.26	109.42
8.30	0.25	109.42
8.35	0.34	109.41
8.40	0.19	109.41
8.45	0.32	109.40
8.50	0.18	109.40
8.55	0.40	109.40
8.60	0.16	109.40
8.65	0.38	109.40
8.70	0.34	109.40
8.75	0.33	109.40
8.80	0.38	109.40
8.85	0.27	109.40
8.90	0.49	109.40
8.95	0.58	109.40
9.00	0.40	109.39
9.05	0.42	109.39
9.10	0.40	109.38
9.15	0.47	109.38
9.20	0.72	109.38
9.25	0.51	109.38
9.30	0.40	109.38
9.35	0.54	109.38
9.40	0.58	109.38
9.45	0.63	109.38
9.50	0.52	109.38
9.55	0.63	109.38
9.60	0.65	109.38
9.65	0.60	109.38
9.70	0.58	109.37
9.75	0.77	109.37
9.80	0.74	109.37
9.85	0.83	109.37
9.90	0.70	109.37
9.95	0.45	109.37
10.00	0.75	109.37
10.05	0.82	109.37
10.10	0.79	109.36
10.15	0.68	109.36
10.20	0.99	109.37
10.25	1.05	109.37
10.30	1.08	109.36
10.35	1.13	109.36
10.40	1.06	109.36
10.45	1.11	109.36
10.50	1.25	109.36
10.55	1.41	109.36
10.60	1.28	109.36
10.65	1.38	109.36
10.70	1.52	109.36
10.75	1.51	109.36
10.80	1.89	109.36
10.85	1.95	109.36
10.90	2.16	109.36
10.95	2.41	109.37
11.00	2.50	109.37
11.05	2.99	109.36
11.10	3.37	109.36
11.15	4.28	109.37
11.20	5.08	109.37
11.25	6.30	109.36
11.30	7.08	109.36
11.35	8.17	109.35
11.40	9.61	109.35
11.45	10.70	109.35
11.50	11.43	109.35
11.55	12.76	109.34
11.60	13.93	109.34
11.65	15.10	109.34
11.70	16.68	109.34
11.75	17.81	109.34
11.80	19.58	109.34
11.85	21.52	109.33
11.90	23.55	109.33
11.95	25.30	109.33
12.00	27.10	109.33
12.05	30.14	109.33
12.10	33.01	109.33
12.15	35.94	109.33
12.20	40.19	109.33
12.25	44.99	109.32
12.30	51.40	109.32
12.35	57.20	109.31
12.40	62.15	109.31
12.45	68.56	109.31
12.50	75.24	109.31
12.55	80.89	109.30
12.60	84.90	109.30
12.65	89.24	109.30
12.70	93.78	109.30
12.75	97.39	109.30
12.80	101.04	109.30
12.85	104.29	109.30
12.90	108.14	109.30
12.95	112.80	109.29
13.00	118.42	109.29
13.05	124.36	109.29
13.10	129.07	109.29
13.15	135.38	109.28
13.20	142.37	109.28
13.25	148.31	109.29
13.30	152.65	109.29
13.35	158.89	109.28
13.40	164.02	109.28
13.45	170.33	109.28
13.50	175.96	109.28
13.55	180.47	109.28
13.60	186.47	109.28
13.65	192.83	109.28
13.70	198.91	109.28
13.75	203.65	109.28
13.80	209.34	109.27
13.85	215.68	109.27
13.90	221.58	109.27
13.95	227.31	109.27
14.00	231.65	109.26
14.05	237.02	109.26
14.10	243.55	109.26
14.15	248.88	109.26
14.20	253.01	109.26
14.25	258.20	109.26
14.30	263.84	109.25
14.35	268.57	109.25
14.40	272.42	109.25
14.45	276.95	109.25
14.50	281.68	109.25
14.55	286.22	109.25
14.60	290.74	109.25
14.65	293.99	109.25
14.70	298.36	109.25
14.75	303.58	109.25
14.80	308.04	109.24
14.85	311.53	109.24
14.90	316.36	109.24
14.95	321.67	109.24
15.00	326.55	109.24
15.05	330.96	109.24
15.10	334.70	109.23
15.15	339.17	109.23
15.20	344.20	109.24
15.25	348.85	109.24
15.30	351.77	109.23
15.35	355.58	109.23
15.40	359.77	109.23
15.45	363.33	109.23
15.50	366.08	109.23
